# DataThief /Users/tim/Dropbox/work/Projects/20_greenedge/datathief/./Hamano+15_Fig12a/Figure.png Tuesday 21-Apr-2020 4:05:37 PM
# T_surf (K), OLR (W/m^2)
260.2828, 243.6631
261.8895, 244.0256
261.8895, 244.3886
261.8895, 244.7515
261.8895, 245.1145
261.8895, 245.4775
263.4961, 245.8399
263.4961, 246.203
263.4961, 246.5659
263.4961, 246.9289
263.4961, 247.2919
263.4961, 247.6549
263.4961, 248.0179
263.4961, 248.3808
265.1028, 248.7433
265.1028, 249.1063
265.1028, 249.4693
265.1028, 249.8323
266.7095, 250.1948
266.7095, 250.5577
266.7095, 250.9207
266.7095, 251.2837
266.7095, 251.6467
266.7095, 252.0097
266.7095, 252.3726
266.7095, 252.7356
266.7095, 253.0986
266.7095, 253.4616
266.7095, 253.8245
266.7095, 254.1875
266.7095, 254.5505
266.7095, 254.9135
266.7095, 255.2765
266.7095, 255.6394
268.3162, 256.0019
268.3162, 256.3649
268.3162, 256.7279
268.3162, 257.0909
269.9229, 257.4534
269.9229, 257.8164
269.9229, 258.1793
269.9229, 258.5423
269.9229, 258.9053
269.9229, 259.2683
269.9229, 259.6312
269.9229, 259.9942
269.9229, 260.3572
269.9229, 260.7202
269.9229, 261.0831
269.9229, 261.4461
271.5295, 261.8086
271.5295, 262.1716
271.5295, 262.5346
271.5295, 262.8976
271.5295, 263.2605
273.1362, 263.623
273.1362, 263.986
273.1362, 264.349
273.1362, 264.712
273.1362, 265.075
273.1362, 265.4379
274.7429, 265.8004
274.7429, 266.1634
274.7429, 266.5264
274.7429, 266.8894
276.3496, 267.2519
276.3496, 267.6149
276.3496, 267.9778
276.3496, 268.3408
276.3496, 268.7038
276.3496, 269.0668
277.9563, 269.4293
277.9563, 269.7922
277.9563, 270.1552
277.9563, 270.5182
279.563, 270.8807
279.563, 271.2437
279.563, 271.6067
279.563, 271.9696
281.1697, 272.3321
281.1697, 272.6951
281.1697, 273.0581
281.1697, 273.4211
281.1697, 273.7841
282.7763, 274.1466
282.7763, 274.5095
282.7763, 274.8725
284.383, 275.2349
284.383, 275.5979
284.383, 275.9609
285.9897, 276.3235
285.9897, 276.6865
285.9897, 277.0493
287.5964, 277.412
287.5964, 277.7749
289.2031, 278.1374
289.2031, 278.5004
290.8098, 278.8629
290.8098, 279.2259
292.4165, 279.5884
294.0231, 279.9508
295.6298, 280.3134
297.2365, 280.6759
298.8432, 281.0384
300.4499, 281.038
302.0566, 281.4005
303.6632, 281.4
305.2699, 281.7625
306.8766, 281.7621
308.4833, 282.1246
310.09, 282.1241
311.6966, 282.1236
313.3033, 282.4862
314.91, 282.4857
316.5167, 282.4852
318.1234, 282.4848
319.7301, 282.8473
321.3368, 282.8468
322.9434, 282.8463
324.5501, 282.8458
326.1568, 282.8454
327.7635, 282.8449
329.3702, 282.8445
330.9769, 282.8439
332.5835, 282.8435
334.1902, 282.8431
335.7969, 282.8426
337.4036, 282.842
339.0103, 282.8417
340.617, 282.8412
342.2237, 282.8407
343.8303, 282.8403
345.437, 282.8397
347.0437, 282.8393
348.6503, 282.8389
350.257, 282.8384
351.8638, 282.8378
353.4704, 282.8375
355.0771, 282.837
356.6838, 282.8365
358.2905, 282.8361
359.8972, 282.8356
361.5039, 282.8351
363.1105, 282.8347
364.7172, 282.8342
366.3239, 282.8336
367.9306, 282.8333
369.5373, 282.8328
371.144, 282.8323
372.7506, 282.8319
374.3573, 282.8314
375.964, 282.8309
377.5707, 282.8305
379.1774, 282.83
380.7841, 282.8295
382.3907, 282.8291
383.9973, 282.8286
385.604, 282.8281
387.2107, 282.8277
388.8175, 282.8272
390.4242, 282.8267
392.0308, 282.8263
393.6375, 282.8258
395.2442, 282.8253
396.8509, 282.8249
398.4576, 282.8244
400.0643, 282.8239
401.671, 282.8235
403.2776, 282.823
404.8843, 282.8225
406.491, 282.8221
408.0977, 282.8216
409.7044, 282.8211
411.3111, 282.8207
412.9177, 282.8202
414.5244, 282.8197
416.1311, 282.8193
417.7378, 282.8188
419.3445, 282.8183
420.9512, 282.8178
422.5577, 282.8174
424.1645, 282.8169
425.7711, 282.8165
427.3779, 282.8159
428.9846, 282.8155
430.5913, 282.8151
432.1979, 282.4516
433.8046, 282.4512
435.4113, 282.4506
437.018, 282.4502
438.6247, 282.4498
440.2314, 282.4493
441.838, 282.4487
443.4447, 282.4484
445.0514, 282.4479
446.6581, 282.4474
448.2648, 282.447
449.8715, 282.4465
451.4781, 282.446
453.0848, 282.4456
454.6915, 282.4451
456.2982, 282.4445
457.9049, 282.4442
459.5116, 282.4437
461.1183, 282.4432
462.7248, 282.4428
464.3316, 282.4423
465.9383, 282.4418
467.545, 282.4414
469.1517, 282.4409
470.7584, 282.4404
472.365, 282.44
473.9717, 282.4395
475.5784, 282.439
477.1851, 282.4386
478.7917, 282.4381
480.3985, 282.4376
482.0051, 282.4372
483.6118, 282.4367
485.2185, 282.4362
486.8252, 282.4358
488.4319, 282.4353
490.0386, 282.4348
491.6452, 282.4344
493.2519, 282.4339
494.8586, 282.4334
496.4653, 282.433
498.072, 282.4325
499.6787, 282.432
501.2852, 282.4316
502.892, 282.4311
504.4987, 282.4306
506.1054, 282.4302
507.7121, 282.4297
509.3188, 282.0663
510.9254, 282.0658
512.5321, 282.0653
514.1388, 282.0649
515.7455, 282.0644
517.3522, 282.0639
518.9588, 282.0635
520.5655, 282.063
522.1722, 282.0625
523.7789, 282.0621
525.3856, 282.0616
526.9923, 282.0611
528.599, 282.0607
530.2057, 282.0602
531.8123, 282.0597
533.419, 282.0593
535.0257, 282.0588
536.6324, 282.0583
538.2391, 282.0579
539.8458, 282.0574
541.4524, 282.0569
543.0591, 282.0565
544.6658, 282.056
546.2725, 282.0555
547.8792, 282.0551
549.4859, 282.0546
551.0925, 282.0541
552.6992, 282.0537
554.3059, 282.0532
555.9125, 282.0527
557.5192, 282.0523
559.126, 282.0518
560.7326, 282.0513
562.3393, 282.0509
563.946, 282.0504
565.5527, 282.0499
567.1594, 282.0495
568.7661, 282.049
570.3728, 282.0485
571.9794, 282.0481
573.5861, 282.0476
575.1928, 282.0471
576.7995, 282.0467
578.4062, 282.0462
580.0129, 282.0457
581.6195, 282.0453
583.2262, 282.0448
584.8329, 282.0443
586.4396, 282.0439
588.0463, 282.0434
589.653, 282.0429
591.2596, 282.0425
592.8662, 282.042
594.4729, 282.0415
596.0796, 282.0411
597.6864, 282.0406
599.2931, 282.0401
600.8997, 282.0397
602.5064, 281.6762
604.1131, 281.6758
605.7198, 281.6753
607.3265, 281.6747
608.9332, 281.6743
610.5398, 281.6739
612.1465, 281.6734
613.7532, 281.673
615.3599, 281.6724
616.9666, 281.672
618.5733, 281.6716
620.1799, 281.6711
621.7866, 281.6705
623.3933, 281.6702
625.0, 281.6697
626.6067, 281.6692
628.2134, 281.6688
629.8201, 281.6683
631.4267, 281.6678
633.0334, 281.6674
634.6401, 281.6669
636.2468, 281.6663
637.8535, 281.666
639.4602, 281.6655
641.0668, 281.665
642.6735, 281.6646
644.2802, 281.6641
645.8869, 281.6636
647.4936, 281.6632
649.1003, 281.6627
650.7069, 281.6622
652.3136, 281.6618
653.9203, 281.6613
655.527, 281.6608
657.1337, 281.6604
658.7404, 281.6599
660.347, 281.6594
661.9537, 281.659
663.5604, 281.6585
665.1671, 281.658
666.7738, 281.6576
668.3805, 281.6571
669.987, 281.6566
671.5937, 281.6562
673.2005, 281.6557
674.8072, 281.6552
676.4139, 281.6548
678.0206, 281.6543
679.6272, 281.6538
681.2339, 281.6534
682.8406, 281.6529
684.4473, 281.6524
686.054, 281.652
687.6606, 281.6515
689.2674, 281.651
690.874, 281.6505
692.4807, 281.6501
694.0874, 281.6496
695.6941, 281.6492
697.3008, 281.6487
698.9075, 281.6482
700.5141, 281.6478
702.1208, 281.6473
703.7275, 281.6468
705.3342, 281.6463
706.9409, 281.6459
708.5476, 281.6454
710.1542, 281.645
711.7609, 281.6444
713.3676, 281.644
714.9743, 281.6436
716.581, 281.6431
718.1877, 281.6425
719.7943, 281.6421
721.401, 281.6417
723.0077, 281.6412
724.6143, 281.6408
726.2211, 281.6402
727.8277, 281.6398
729.4344, 281.6394
731.0411, 281.6389
732.6478, 281.6383
734.2545, 281.638
735.8612, 281.6375
737.4679, 281.637
739.0746, 281.6366
740.6812, 281.636
742.2879, 281.6356
743.8946, 281.6352
745.5013, 281.6347
747.108, 281.6341
748.7147, 281.6338
750.3213, 281.6333
751.928, 281.6328
753.5347, 281.6324
755.1414, 281.6319
756.7481, 281.6314
758.3548, 281.631
759.9614, 281.6305
761.5681, 281.63
763.1748, 281.6296
764.7814, 281.6291
766.3881, 281.6286
767.9949, 281.6282
769.6015, 281.6277
771.2082, 281.6272
772.8149, 281.6268
774.4216, 281.6263
776.0283, 281.6258
777.635, 281.6254
779.2416, 281.6249
780.8483, 281.6244
782.455, 281.624
784.0617, 281.6235
785.6684, 281.623
787.2751, 281.6226
788.8817, 281.6221
790.4884, 281.6216
792.0951, 281.6212
793.7018, 281.6207
795.3085, 281.6202
796.9152, 281.6198
798.5219, 281.6193
800.1285, 281.6188
801.7351, 281.6183
803.3418, 281.6179
804.9485, 281.6174
806.5553, 281.617
808.162, 281.6165
809.7686, 281.616
811.3753, 281.6156
812.982, 281.6151
814.5887, 281.6146
816.1954, 281.6141
817.8021, 281.6137
819.4087, 281.6132
821.0154, 281.6128
822.6221, 281.6122
824.2288, 281.6118
825.8355, 281.6114
827.4422, 281.6109
829.0488, 281.6104
830.6555, 281.6099
832.2622, 281.6095
833.8689, 281.609
835.4756, 281.6086
837.0823, 281.608
838.6888, 281.6076
840.2955, 281.6072
841.9022, 281.6067
843.509, 281.6061
845.1157, 281.6058
846.7224, 281.6053
848.329, 281.6048
849.9357, 281.6044
851.5424, 281.6038
853.1491, 281.6034
854.7558, 281.603
856.3625, 281.6025
857.9691, 281.6019
859.5758, 281.6016
861.1825, 281.6011
862.7892, 281.6006
864.3959, 281.6002
866.0026, 281.5997
867.6093, 281.5992
869.2159, 281.5988
870.8226, 281.5983
872.4293, 281.5977
874.036, 281.5974
875.6427, 281.5969
877.2494, 281.5964
878.8559, 281.596
880.4627, 281.5955
882.0694, 281.595
883.6761, 281.5946
885.2828, 281.5941
886.8895, 281.5936
888.4961, 281.5932
890.1028, 281.5927
891.7095, 281.5922
893.3162, 281.5918
894.9229, 281.5913
896.5295, 281.5908
898.1362, 281.5904
899.7429, 281.5899
901.3496, 281.5894
902.9563, 281.589
904.563, 281.5885
906.1697, 281.588
907.7763, 281.5876
909.383, 281.5871
910.9897, 281.5866
912.5964, 281.5862
914.2031, 281.5857
915.8098, 281.5852
917.4165, 281.5848
919.0231, 281.5843
920.6298, 281.5838
922.2365, 281.5834
923.8432, 281.5829
925.4499, 281.5824
927.0566, 281.5819
928.6632, 281.5815
930.2699, 281.581
931.8766, 281.5806
933.4833, 281.58
935.09, 281.5796
936.6966, 281.5792
938.3033, 281.5787
939.91, 281.5782
941.5167, 281.5777
943.1234, 281.5773
944.7301, 281.5768
946.3368, 281.5764
947.9434, 281.5758
949.5501, 281.5754
951.1568, 281.575
952.7635, 281.5745
954.3702, 281.5739
955.9769, 281.5735
957.5835, 281.5731
959.1902, 281.5726
960.7969, 281.5722
962.4036, 281.5716
964.0103, 281.5712
965.617, 281.5708
967.2237, 281.5703
968.8303, 281.5697
970.437, 281.5694
972.0437, 281.5689
973.6503, 281.5684
975.257, 281.205
976.8638, 281.2045
978.4704, 281.2041
980.0771, 281.2036
981.6838, 281.2031
983.2905, 281.2027
984.8972, 281.2022
986.5039, 281.2017
988.1105, 281.2013
989.7172, 281.2008
991.3239, 281.2003
992.9306, 281.1999
994.5373, 281.1994
996.144, 281.1989
997.7506, 281.1985
999.3573, 281.198
1000.964, 281.1975
1002.5707, 281.1971
1004.1774, 281.1966
1005.7841, 281.1961
1007.3907, 281.1957
1008.9973, 281.1952
1010.604, 281.1947
1012.2107, 281.1943
1013.8175, 281.1938
1015.4242, 281.1933
1017.0308, 281.1929
1018.6375, 281.1924
1020.2442, 281.1919
1021.8509, 281.1915
1023.4576, 281.191
1025.0643, 281.1905
1026.671, 281.1901
1028.2776, 281.1896
1029.8843, 281.1891
1031.491, 281.1887
1033.0977, 281.1882
1034.7044, 281.1877
1036.3111, 281.1873
1037.9177, 281.1868
1039.5244, 281.1863
1041.1311, 281.1859
1042.7378, 281.1854
1044.3445, 281.1849
1045.9512, 281.1844
1047.5577, 281.184
1049.1645, 281.1835
1050.7711, 281.1831
1052.3779, 281.1826
1053.9846, 281.1821
1055.5913, 281.1817
1057.1979, 281.1812
1058.8046, 281.1807
1060.4113, 281.1803
1062.018, 281.1798
1063.6247, 281.1793
1065.2314, 281.1789
1066.838, 281.1784
1068.4447, 281.1779
1070.0514, 281.1775
1071.6581, 281.177
1073.2648, 281.1764
1074.8715, 281.1761
1076.4781, 281.1756
1078.0848, 280.8122
1079.6915, 280.8117
1081.2982, 280.8112
1082.9049, 280.8108
1084.5116, 280.8103
1086.1183, 280.8098
1087.7248, 280.8094
1089.3316, 280.8089
1090.9383, 280.8084
1092.545, 280.808
1094.1517, 280.8075
1095.7584, 280.807
1097.365, 280.8066
1098.9717, 280.8061
1100.5784, 280.8056
1102.1851, 280.8052
1103.7917, 280.8047
1105.3985, 280.8042
1107.0051, 280.8037
1108.6118, 280.8033
1110.2185, 280.8028
1111.8252, 280.8024
1113.4319, 280.8018
1115.0386, 280.8014
1116.6452, 280.801
1118.2519, 280.8005
1119.8586, 280.8
1121.4653, 280.7995
1123.072, 280.7991
1124.6787, 280.7986
1126.2852, 280.7982
1127.892, 280.7976
1129.4987, 280.7972
1131.1054, 280.7968
1132.7121, 280.7963
1134.3188, 280.7957
1135.9254, 280.7953
1137.5321, 280.7949
1139.1388, 280.7944
1140.7455, 280.794
1142.3522, 280.7934
1143.9588, 280.793
1145.5655, 280.7926
1147.1722, 280.7921
1148.7789, 280.7915
1150.3856, 280.7912
1151.9923, 280.7907
1153.599, 280.7902
1155.2057, 280.7898
1156.8123, 280.7893
1158.419, 280.7888
1160.0257, 280.7884
1161.6324, 280.7879
1163.2391, 280.7873
1164.8458, 280.787
1166.4524, 280.7865
1168.0591, 280.786
1169.6658, 280.7856
1171.2725, 280.7851
1172.8792, 280.7846
1174.4859, 280.7842
1176.0925, 280.7837
1177.6992, 280.7832
1179.3059, 280.7828
1180.9125, 280.7823
1182.5192, 280.7818
1184.126, 280.4184
1185.7326, 280.4179
1187.3393, 280.4175
1188.946, 280.417
1190.5527, 280.4165
1192.1594, 280.4161
1193.7661, 280.4156
1195.3728, 280.4151
1196.9794, 280.4147
1198.5861, 280.4142
1200.1928, 280.4137
1201.7995, 280.4133
1203.4062, 280.4128
1205.0129, 280.4123
1206.6195, 280.4119
1208.2262, 280.4114
1209.8329, 280.4109
1211.4396, 280.4104
1213.0463, 280.41
1214.653, 280.4095
1216.2596, 280.4091
1217.8662, 280.4086
1219.4729, 280.4081
1221.0796, 280.4077
1222.6864, 280.4072
1224.2931, 280.4067
1225.8997, 280.4062
1227.5064, 280.4058
1229.1131, 280.4053
1230.7198, 280.4049
1232.3265, 280.4043
1233.9332, 280.4039
1235.5398, 280.4035
1237.1465, 280.403
1238.7532, 280.4025
1240.3599, 280.4021
1241.9666, 280.4016
1243.5733, 280.4011
1245.1799, 280.4007
1246.7866, 280.4002
1248.3933, 280.3997
1250.0, 280.3993
1251.6067, 280.3988
1253.2134, 280.3982
1254.8201, 280.3979
1256.4267, 280.3974
1258.0334, 280.3969
1259.6401, 280.3965
1261.2468, 280.396
1262.8535, 280.3955
1264.4602, 280.3951
1266.0668, 280.3946
1267.6735, 280.3941
1269.2802, 280.3937
1270.8869, 280.3932
1272.4936, 280.3927
1274.1003, 280.3923
1275.7069, 280.3918
1277.3136, 280.3913
1278.9203, 280.3909
1280.527, 280.0274
1282.1337, 280.027
1283.7404, 280.0265
1285.347, 280.026
1286.9537, 280.0256
1288.5604, 280.0251
1290.1671, 280.0246
1291.7738, 280.0242
1293.3805, 280.0237
1294.987, 280.0232
1296.5937, 280.0228
1298.2005, 280.0223
1299.8072, 280.0218
1301.4139, 280.0214
1303.0206, 280.0209
1304.6272, 280.0204
1306.2339, 280.02
1307.8406, 280.0195
1309.4473, 280.019
1311.054, 280.0186
1312.6606, 280.0181
1314.2674, 280.0176
1315.874, 280.0172
1317.4807, 280.0167
1319.0874, 280.0162
1320.6941, 280.0158
1322.3008, 280.0153
1323.9075, 280.0148
1325.5141, 280.0144
1327.1208, 280.0139
1328.7275, 280.0134
1330.3342, 280.013
1331.9409, 280.0125
1333.5476, 280.012
1335.1542, 280.0116
1336.7609, 280.0111
1338.3676, 280.0106
1339.9743, 280.0102
1341.581, 280.0097
1343.1877, 280.0092
1344.7943, 280.0088
1346.401, 280.0083
1348.0077, 280.0078
1349.6143, 280.0074
1351.2211, 280.0069
1352.8277, 280.0064
1354.4344, 280.006
1356.0411, 280.0055
1357.6478, 280.005
1359.2545, 280.3675
1360.8612, 280.3671
1362.4679, 280.3666
1364.0746, 280.366
1365.6812, 280.3657
1367.2879, 280.3652
1368.8946, 280.3647
1370.5013, 280.3643
1372.108, 280.3638
1373.7147, 280.3633
1375.3213, 280.3629
1376.928, 280.3624
1378.5347, 280.3618
1380.1414, 280.3615
1381.7481, 280.361
1383.3548, 280.3606
1384.9614, 280.3601
1386.5681, 280.3596
1388.1748, 280.3592
1389.7814, 280.3587
1391.3881, 280.3582
1392.9949, 280.3578
1394.6015, 280.3573
1396.2082, 280.3568
1397.8149, 280.3564
1399.4216, 280.3559
1401.0283, 280.3554
1402.635, 280.355
1404.2416, 280.3545
1405.8483, 280.354
1407.455, 280.3536
1409.0617, 280.3531
1410.6684, 280.3526
1412.2751, 280.3522
1413.8817, 280.3517
1415.4884, 280.3512
1417.0951, 280.3508
1418.7018, 280.3503
1420.3085, 280.3498
1421.9152, 280.3494
1423.5219, 280.3489
1425.1285, 280.3484
1426.7351, 280.3479
1428.3418, 280.3475
1429.9485, 280.347
1431.5553, 280.3466
1433.162, 280.3461
1434.7686, 280.3456
1436.3753, 280.3452
1437.982, 280.3447
1439.5887, 280.3442
1441.1954, 280.3437
1442.8021, 280.3433
1444.4087, 280.3428
1446.0154, 280.3424
1447.6221, 280.3418
1449.2288, 280.3414
1450.8355, 280.341
1452.4422, 280.3405
1454.0488, 280.34
1455.6555, 280.3396
1457.2622, 280.3391
1458.8689, 280.3386
1460.4756, 280.3382
1462.0823, 280.3377
1463.6888, 280.3372
1465.2955, 280.3368
1466.9022, 280.3363
1468.509, 280.3357
1470.1157, 280.3354
1471.7224, 280.3349
1473.329, 280.3344
1474.9357, 280.334
1476.5424, 280.3335
1478.1491, 280.333
1479.7558, 280.3326
1481.3625, 280.3321
1482.9691, 280.3316
1484.5758, 280.3312
1486.1825, 280.3307
1487.7892, 280.3302
1489.3959, 280.3298
1491.0026, 280.3293
1492.6093, 280.3288
1494.2159, 280.3284
1495.8226, 280.3279
1497.4293, 280.3274
1499.036, 280.327
1500.6427, 280.3265
1502.2494, 280.326
1503.8559, 280.6885
1505.4627, 280.6881
1507.0694, 280.6876
1508.6761, 280.6871
1510.2828, 280.6867
1511.8895, 280.6862
1513.4961, 280.6857
1515.1028, 280.6853
1516.7095, 280.6848
1518.3162, 280.6843
1519.9229, 280.6839
1521.5295, 280.6834
1523.1362, 280.6829
1524.7429, 280.6825
1526.3496, 280.682
1527.9563, 280.6815
1529.563, 280.6811
1531.1697, 280.6806
1532.7763, 280.6801
1534.383, 280.6797
1535.9897, 280.6792
1537.5964, 280.6787
1539.2031, 280.6783
1540.8098, 280.6778
1542.4165, 280.6773
1544.0231, 280.6768
1545.6298, 280.6764
1547.2365, 280.6759
1548.8432, 280.6755
1550.4499, 280.675
1552.0566, 280.6745
1553.6632, 280.6741
1555.2699, 280.6736
1556.8766, 280.6731
1558.4833, 280.6726
1560.09, 280.6722
1561.6966, 280.6717
1563.3033, 280.6713
1564.91, 280.6707
1566.5167, 281.0333
1568.1234, 281.0328
1569.7301, 281.0324
1571.3368, 281.0319
1572.9434, 281.0315
1574.5501, 281.031
1576.1568, 281.0305
1577.7635, 281.0301
1579.3702, 281.0296
1580.9769, 281.0291
1582.5835, 281.0287
1584.1902, 281.0282
1585.7969, 281.0277
1587.4036, 281.0273
1589.0103, 281.0268
1590.617, 281.0263
1592.2237, 281.0259
1593.8303, 281.0254
1595.437, 281.0249
1597.0437, 281.0245
1598.6503, 281.024
1600.257, 281.3865
1601.8638, 281.386
1603.4704, 281.7485
1605.0771, 281.7481
1606.6838, 281.7476
1608.2905, 281.7471
1609.8972, 281.7467
1611.5039, 281.7462
1613.1105, 281.7457
1614.7172, 281.7452
1616.3239, 282.1078
1617.9306, 282.1073
1619.5373, 282.1068
1621.144, 282.1064
1622.7506, 282.1059
1624.3573, 282.1054
1625.964, 282.468
1627.5707, 282.4675
1629.1774, 282.467
1630.7841, 282.4666
1632.3907, 282.4661
1633.9973, 282.4656
1635.604, 282.8281
1637.2107, 282.8277
1638.8175, 282.8272
1640.4242, 282.8267
1642.0308, 282.8263
1643.6375, 282.8258
1645.2442, 283.1883
1646.8509, 283.1878
1648.4576, 283.1874
1650.0643, 283.1869
1651.671, 283.1864
1653.2776, 283.186
1654.8843, 283.5485
1656.491, 283.548
1658.0977, 283.5476
1659.7044, 283.5471
1661.3111, 283.5466
1662.9177, 283.5462
1664.5244, 283.5457
1666.1311, 283.9082
1667.7378, 283.9077
1669.3445, 283.9073
1670.9512, 283.9068
1672.5577, 283.9062
1674.1645, 284.2688
1675.7711, 284.2684
1677.3779, 284.2679
1678.9846, 284.2674
1680.5913, 284.267
1682.1979, 284.2665
1683.8046, 284.629
1685.4113, 284.6286
1687.018, 284.628
1688.6247, 284.6276
1690.2314, 284.9901
1691.838, 284.9897
1693.4447, 284.9891
1695.0514, 284.9887
1696.6581, 284.9883
1698.2648, 285.3508
1699.8715, 285.3503
1701.4781, 285.3498
1703.0848, 285.7124
1704.6915, 285.7119
1706.2982, 286.0744
1707.9049, 286.0739
1709.5116, 286.4364
1711.1183, 286.436
1712.7248, 286.7985
1714.3316, 286.798
1715.9383, 287.1605
1717.545, 287.1601
1719.1517, 287.5226
1720.7584, 287.5221
1722.365, 287.5215
1723.9717, 287.8841
1725.5784, 287.8837
1727.1851, 288.2462
1728.7917, 288.2457
1730.3985, 288.2453
1732.0051, 288.6078
1733.6118, 288.6073
1735.2185, 288.9698
1736.8252, 288.9693
1738.4319, 289.3319
1740.0386, 289.3314
1741.6452, 289.6939
1743.2519, 289.6934
1744.8586, 290.0559
1746.4653, 290.0555
1748.072, 290.055
1749.6787, 290.4175
1751.2852, 290.417
1752.892, 290.7795
1754.4987, 290.7791
1756.1054, 291.1416
1757.7121, 291.1411
1759.3188, 291.5036
1760.9254, 291.5032
1762.5321, 291.8657
1764.1388, 291.8652
1765.7455, 291.8648
1767.3522, 292.2273
1768.9588, 292.2268
1770.5655, 292.5893
1772.1722, 292.5888
1773.7789, 292.9514
1775.3856, 292.9508
1776.9923, 292.9504
1778.599, 293.3129
1780.2057, 293.3125
1781.8123, 293.675
1783.419, 293.6745
1785.0257, 294.037
1786.6324, 294.0365
1788.2391, 294.3991
1789.8458, 294.3986
1791.4524, 294.761
1793.0591, 294.7606
1794.6658, 295.1231
1796.2725, 295.1227
1797.8792, 295.4852
1799.4859, 295.8477
1801.0925, 295.8472
1802.6992, 296.2097
1804.3059, 296.5723
1805.9125, 296.5718
1807.5192, 296.9343
1809.126, 297.2968
1810.7326, 297.6593
1812.3393, 298.0218
1813.946, 298.0214
1815.5527, 298.3839
1817.1594, 298.7464
1818.7661, 299.1089
1820.3728, 299.4714
1821.9794, 299.8338
1823.5861, 300.1964
1825.1928, 300.5589
1826.7995, 300.9214
1828.4062, 301.2839
1830.0129, 301.6465
1831.6195, 302.009
1833.2262, 302.0085
1833.2262, 302.3715
1834.8329, 302.371
1836.4396, 302.7335
1838.0463, 303.096
1839.653, 303.4585
1841.2596, 303.821
1842.8662, 304.1836
1844.4729, 304.1831
1844.4729, 304.5461
1846.0796, 304.5455
1847.6864, 304.9081
1849.2931, 305.2706
1850.8997, 305.6331
1852.5064, 305.6327
1852.5064, 305.9956
1854.1131, 305.9952
1855.7198, 306.3577
1857.3265, 306.7202
1858.9332, 307.0827
1860.5398, 307.4452
1862.1465, 307.4447
1863.7532, 307.8073
1865.3599, 308.1698
1866.9666, 308.5323
1868.5733, 308.8948
1870.1799, 309.2572
1871.7866, 309.6198
1873.3933, 309.6193
1873.3933, 309.9823
1875.0, 309.9819
1876.6067, 310.3444
1878.2134, 310.7069
1879.8201, 311.0694
1881.4267, 311.4319
1883.0334, 311.7944
1884.6401, 312.1569
1886.2468, 312.5194
1887.8535, 312.519
1889.4602, 312.8815
1891.0668, 313.244
1892.6735, 313.6065
1894.2802, 313.9689
1895.8869, 314.3315
1897.4936, 314.694
1899.1003, 315.0565
1900.7069, 315.419
1902.3136, 315.7814
1902.3136, 316.1445
1903.9203, 316.507
1905.527, 316.8695
1905.527, 317.2325
1907.1337, 317.595
1908.7404, 317.9575
1910.347, 318.32
1911.9537, 318.6825
1911.9537, 319.0455
1913.5604, 319.408
1913.5604, 319.771
1915.1671, 320.1335
1916.7738, 320.496
1918.3805, 320.8585
1918.3805, 321.2215
1919.987, 321.584
1921.5937, 321.9465
1923.2005, 322.3091
1923.2005, 322.672
1924.8072, 323.0345
1926.4139, 323.397
1926.4139, 323.76
1928.0206, 324.1225
1929.6272, 324.4849
1929.6272, 324.8479
1931.2339, 325.2105
1932.8406, 325.573
1932.8406, 325.936
1934.4473, 326.2985
1936.054, 326.661
1936.054, 327.024
1937.6606, 327.3865
1939.2674, 327.749
1940.874, 328.1115
1940.874, 328.4745
1942.4807, 328.837
1944.0874, 329.1995
1944.0874, 329.5625
1945.6941, 329.925
1947.3008, 330.2875
1947.3008, 330.6505
1948.9075, 331.013
1950.5141, 331.3755
1950.5141, 331.7385
1952.1208, 332.101
1953.7275, 332.4635
1955.3342, 332.826
1955.3342, 333.189
1956.9409, 333.5514
1958.5476, 333.914
1960.1542, 334.2765
1960.1542, 334.6395
1961.7609, 335.002
1963.3676, 335.3645
1964.9743, 335.7269
1964.9743, 336.09
1966.581, 336.4525
1966.581, 336.8155
1968.1877, 337.178
1968.1877, 337.541
1968.1877, 337.904
1969.7943, 338.2665
